t / s,&j / arb.u.
0.03,-66.12
0.08,-66.2
0.13,-66.18
0.18,-66.2
0.23,-66.25
0.28,-66.26
0.33,-66.2
0.38,-66.31
0.43,-66.37
0.48,-66.43
0.53,-66.38
0.58,-66.39
0.63,-64.95
0.68,-61.84
0.73,-57.21
0.78,-51.63
0.83,-45.3
0.88,-38.96
0.93,-31.77
0.98,-23.78
1.03,-14.75
1.08,-4.82
1.13,5.84
1.18,16.54
1.23,26.49
1.28,34.93
1.33,41.98
1.38,47.43
1.43,51.57
1.48,54.31
1.53,55.95
1.58,56.24
1.63,55.46
1.68,53.34
1.73,50.08
1.78,45.51
1.83,39.83
1.88,32.86
1.93,24.8
1.98,15.68
2.03,6.24
2.08,-2.98
2.13,-11.42
2.18,-19.01
2.23,-25.51
2.28,-31.12
2.33,-35.78
2.38,-39.47
2.43,-42.24
2.48,-43.82
2.53,-44.02
2.58,-43.57
2.63,-42.55
2.68,-40.73
2.73,-38.1
2.78,-34.68
2.83,-30.54
2.88,-25.69
2.93,-20.19
2.98,-13.99
3.03,-7.31
3.08,-0.17
3.13,7.04
3.18,14.1
3.23,20.64
3.28,26.32
3.33,31.04
3.38,34.83
3.43,37.57
3.48,39.33
3.53,40.13
3.58,40.08
3.63,38.98
3.68,36.96
3.73,34.01
3.78,30.14
3.83,25.44
3.88,20.03
3.93,14.02
3.98,7.76
4.03,1.49
4.08,-4.56
4.13,-10.13
4.18,-15.15
4.23,-19.56
4.28,-23.37
4.33,-26.45
4.38,-28.83
4.43,-30.56
4.48,-31.62
4.53,-31.95
4.58,-31.79
4.63,-30.89
4.68,-29.29
4.73,-27.11
4.78,-24.39
4.83,-21.18
4.88,-17.4
4.93,-13.2
4.98,-8.72
5.03,-3.93
5.08,1.08
5.13,5.8
5.18,10.49
5.23,14.75
5.28,18.59
5.33,21.73
5.38,24.23
5.43,26.04
5.48,27.16
5.53,27.47
5.58,27.3
5.63,26.19
5.68,24.45
5.73,22.1
5.78,19.17
5.83,15.7
5.88,11.83
5.93,7.79
5.98,3.61
6.03,-0.54
6.08,-4.47
6.13,-8.22
6.18,-11.54
6.23,-14.51
6.28,-17.01
6.33,-19.15
6.38,-20.7
6.43,-21.86
6.48,-22.37
6.53,-22.56
6.58,-22.37
6.63,-21.62
6.68,-20.37
6.73,-18.78
6.78,-16.73
6.83,-14.47
6.88,-11.82
6.93,-9.04
6.98,-5.97
7.03,-2.78
7.08,0.37
7.13,3.31
7.18,6.25
7.23,8.88
7.28,11.25
7.33,13.18
7.38,14.85
7.43,15.89
7.48,16.55
7.53,16.62
7.58,16.54
7.63,15.76
7.68,14.56
7.73,12.95
7.78,11.08
7.83,8.79
7.88,6.49
7.93,3.88
7.98,1.42
8.03,-1.16
8.08,-3.59
8.13,-5.98
8.18,-8.06
8.23,-10
8.28,-11.53
8.33,-12.86
8.38,-13.84
8.43,-14.58
8.48,-14.95
8.53,-15.05
8.58,-14.86
8.63,-14.37
8.68,-13.5
8.73,-12.47
8.78,-11.17
8.83,-9.73
8.88,-8.08
8.93,-6.28
8.98,-4.36
9.03,-2.58
9.08,-0.69
9.13,1.16
9.18,2.83
9.23,4.36
9.28,5.77
9.33,6.87
9.38,7.73
9.43,8.26
9.48,8.73
9.53,8.73
9.58,8.67
9.63,8.17
9.68,7.52
9.73,6.61
9.78,5.55
9.83,4.27
9.88,3.02
9.93,1.52
9.98,0.17
10.03,-1.37
10.08,-2.69
10.13,-4.1
10.18,-5.26
10.23,-6.39
10.28,-7.25
10.33,-8.1
10.38,-8.56
10.43,-9.02
10.48,-9.13
10.53,-9.26
10.58,-9.1
10.63,-8.86
10.68,-8.34
10.73,-7.79
10.78,-6.98
10.83,-6.2
10.88,-5.24
10.93,-4.3
10.98,-3.24
11.03,-2.33
11.08,-1.2
11.13,-0.37
11.18,0.65
11.23,1.33
11.28,2.08
11.33,2.57
11.38,3.15
11.43,3.27
11.48,3.47
11.53,3.41
11.58,3.45
11.63,3.16
11.68,2.9
11.73,2.34
11.78,1.9
11.83,1.2
11.88,0.64
11.93,-0.12
11.98,-0.77
12.03,-1.51
12.08,-2.1
12.13,-2.84
12.18,-3.33
12.23,-3.88
12.28,-4.22
12.33,-4.63
12.38,-4.86
12.43,-5.06
12.48,-5.03
12.53,-5.12
12.58,-5.05
12.63,-4.98
12.68,-4.7
12.73,-4.47
12.78,-4.11
12.83,-3.82
12.88,-3.35
12.93,-3.05
12.98,-2.59
13.03,-2.29
13.08,-1.82
13.13,-1.52
13.18,-1.17
13.23,-0.99
13.28,-0.63
13.33,-0.52
13.38,-0.27
13.43,-0.3
13.48,-0.17
13.53,-0.26
13.58,-0.22
13.63,-0.3
13.68,-0.3
13.73,-0.45
13.78,-0.54
13.83,-0.78
13.88,-0.87
13.93,-1.11
13.98,-1.19
14.03,-1.45
14.08,-1.48
14.13,-1.71
14.18,-1.76
14.23,-1.98
14.28,-1.94
14.33,-2.1
14.38,-2.03
14.43,-2.16
14.48,-2.06
14.53,-2.13
14.58,-2.06
14.63,-2.15
14.68,-2.05
14.73,-2.15
14.78,-2.06
14.83,-2.17
14.88,-2.03
14.93,-2.2
14.98,-2.04
15.03,-2.16
15.08,-2.09
15.13,-2.14
15.18,-2.09
15.23,-2.1
15.28,-2.06
15.33,-2.16
15.38,-2
15.43,-2.1
15.48,-2.04
15.53,-2.15
15.58,-2.04
15.63,-2.14
15.68,-2.06
15.73,-2.15
15.78,-2.06
15.83,-2.16
15.88,-2.04
15.93,-2.15
15.98,-2.07
16.03,-2.22
16.08,-2.06
16.13,-2.14
16.18,-2.01
16.23,-2.15
16.28,-2.08
16.33,-2.16
16.38,-2.09
16.43,-2.17
16.48,-2.04
16.53,-2.17
16.58,-2.04
16.63,-2.15
16.68,-2.06
16.73,-2.15
16.78,-2.06
16.83,-2.17
16.88,-2.04
16.93,-2.12
16.98,-2.02
17.03,-2.17
17.08,-2.04
17.13,-2.17
17.18,-2.03
17.23,-2.16
17.28,-2.09
17.33,-2.15
17.38,-2.04
17.43,-2.1
17.48,-2.08
17.53,-2.14
17.58,-2.06
17.63,-2.16
17.68,-2.07
17.73,-2.14
17.78,-2.06
17.83,-2.18
17.88,-2.06
17.93,-2.17
17.98,-2.1
18.03,-2.15
18.08,-2.03
18.13,-2.12
18.18,-2.07
18.23,-2.15
18.28,-2.07
18.33,-2.13
18.38,-2.07
18.43,-2.17
18.48,-2.06
18.53,-2.12
18.58,-2.06
18.63,-2.15
18.68,-2.07
18.73,-2.1
18.78,-2.07
18.83,-2.15
18.88,-2.06
18.93,-2.13
18.98,-2.11
19.03,-2.13
19.08,-2.07
19.13,-2.11
19.18,-2.06
19.23,-2.14
19.28,-2.07
19.33,-2.16
19.38,-2.04
19.43,-2.12
19.48,-2.09
19.53,-2.15
19.58,-2.06
19.63,-2.14
19.68,-2.09
19.73,-2.13
19.78,-2.05
19.83,-2.15
19.88,-2.03
19.93,-2.16
19.98,-2.05
20.03,-2.15
20.08,-2.07
20.13,-2.15
20.18,-2.04
20.23,-2.12
20.28,-2.09
20.33,-2.14
20.38,-2.1
20.43,-2.12
20.48,-2.06
20.53,-2.13
20.58,-2.09
20.63,-2.12
20.68,-2.09
20.73,-2.14
20.78,-2.07
20.83,-2.13
20.88,-2.08
20.93,-2.11
20.98,-2.07
21.03,-2.12
21.08,-2.06
21.13,-2.15
21.18,-2.06
21.23,-2.15
21.28,-2.09
21.33,-2.12
21.38,-2.08
21.43,-2.12
21.48,-2.07
21.53,-2.16
21.58,-2.09
21.63,-2.12
21.68,-2.05
21.73,-2.11
21.78,-2.08
21.83,-2.13
21.88,-2.06
21.93,-2.14
21.98,-2.05
22.03,-2.12
22.08,-2.07
22.13,-2.12
22.18,-2.11
22.23,-2.12
22.28,-2.1
22.33,-2.1
22.38,-2.01
22.43,-2.09
22.48,-2.09
22.53,-2.11
22.58,-2.04
22.63,-2.1
22.68,-2.07
22.73,-2.15
22.78,-2.05
22.83,-2.16
22.88,-2.08
22.93,-2.13
22.98,-2.06
23.03,-2.12
23.08,-2.07
23.13,-2.12
23.18,-2.1
23.23,-2.1
23.28,-2.12
23.33,-2.14
23.38,-2.08
23.43,-2.12
23.48,-2.09
23.53,-2.12
23.58,-2.09
23.63,-2.12
23.68,-2.12
23.73,-2.14
23.78,-2.11
23.83,-2.11
23.88,-2.09
23.93,-2.12
23.98,-2.09
24.03,-2.12
24.08,-2.1
24.13,-2.1
24.18,-2.08
24.23,-2.12
24.28,-2.12
24.33,-2.11
24.38,-2.16
24.43,-2.15
24.48,-2.1
24.53,-2.13
24.58,-2.12
24.63,-2.09
24.68,-2.11
24.73,-2.14
24.78,-2.11
24.83,-2.06
24.88,-2.1
24.93,-2.13
24.98,-2.09
25.03,-2.12
25.08,-2.08
25.13,-2.12
25.18,-2.08
25.23,-2.12
25.28,-2.08
25.33,-2.11
25.38,-2.14
25.43,-2.13
25.48,-2.08
25.53,-2.11
25.58,-2.11
25.63,-2.12
25.68,-2.1
25.73,-2.09
25.78,-2.1
25.83,-2.09
25.88,-2.11
25.93,-2.12
25.98,-2.11
26.03,-2.09
26.08,-2.1
26.13,-2.08
26.18,-2.08
26.23,-2.1
26.28,-2.1
26.33,-2.08
26.38,-2.11
26.43,-2.08
26.48,-2.06
26.53,-2.12
26.58,-2.15
26.63,-2.09
26.68,-2.15
26.73,-2.08
26.78,-2.12
26.83,-2.07
26.88,-2.1
26.93,-2.1
26.98,-2.11
27.03,-2.13
27.08,-2.1
27.13,-2.07
27.18,-2.13
27.23,-2.11
27.28,-2.11
27.33,-2.11
27.38,-2.08
27.43,-2.05
27.48,-2.12
27.53,-2.05
27.58,-2.13
27.63,-2.07
27.68,-2.09
27.73,-2.08
27.78,-2.13
27.83,-2.08
27.88,-2.11
27.93,-2.08
27.98,-2.12
28.03,-2.11
28.08,-2.15
28.13,-2.07
28.18,-2.17
28.23,-2.08
28.28,-2.12
28.33,-2.06
28.38,-2.06
28.43,-2.03
28.48,-2.14
28.53,-2.09
28.58,-2.14
28.63,-2.08
28.68,-2.15
28.73,-2.08
28.78,-2.14
28.83,-2.07
28.88,-2.12
28.93,-2.08
28.98,-2.13
29.03,-2.06
29.08,-2.06
29.13,-2.09
29.18,-2.12
29.23,-2.08
29.28,-2.13
29.33,-2.06
29.38,-2.14
29.43,-2.11
29.48,-2.14
29.53,-2.09
29.58,-2.12
29.63,-2.1
29.68,-2.15
29.73,-2.1
29.78,-2.11
29.83,-2.06
29.88,-2.11
29.93,-2.08
29.98,-2.13
30.03,-2.12
30.08,-2.16
30.13,-2.09
30.18,-2.07
30.23,-2.06
30.28,-2.08
30.33,-2.07
30.38,-2.15
30.43,-2.06
30.48,-2.13
30.53,-2.08
30.58,-2.11
30.63,-2.07
30.68,-2.12
30.73,-2.03
30.78,-2.11
30.83,-2.1
30.88,-2.1
30.93,-2.06
30.98,-2.16
31.03,-2.01
31.08,-2.08
31.13,-2.07
31.18,-2.15
31.23,-2.11
31.28,-2.15
31.33,-2.06
31.38,-2.16
31.43,-2.1
31.48,-2.15
31.53,-2.09
31.58,-2.1
31.63,-2.07
31.68,-2.12
31.73,-2.08
31.78,-2.13
31.83,-2.07
31.88,-2.16
31.93,-2.04
31.98,-2.14
32.03,-2.08
32.08,-2.12
32.13,-2.07
32.18,-2.13
32.23,-2.06
32.28,-2.14
32.33,-2.08
32.38,-2.14
32.43,-2.07
32.48,-2.13
32.53,-2.04
32.58,-2.13
32.63,-2.1
32.68,-2.15
32.73,-2.09
32.78,-2.12
32.83,-2.1
32.88,-2.12
32.93,-2.1
32.98,-2.12
33.03,-2.04
33.08,-2.17
33.13,-2.06
33.18,-2.17
33.23,-2.06
33.28,-2.16
33.33,-2.05
33.38,-2.12
33.43,-2.07
33.48,-2.13
33.53,-2.06
33.58,-2.11
33.63,-2.06
33.68,-2.14
33.73,-2.06
33.78,-2.13
33.83,-2.04
33.88,-2.16
33.93,-2.07
33.98,-2.15
34.03,-2.04
34.08,-2.11
34.13,-2.11
34.18,-2.17
34.23,-2.05
34.28,-2.12
34.33,-2.06
34.38,-2.1
34.43,-2.02
34.48,-2.13
34.53,-2.05
34.58,-2.16
34.63,-2.05
34.68,-2.16
34.73,-2.02
34.78,-2.19
34.83,-2.07
34.88,-2.15
34.93,-2.08
34.98,-2.14
