t / s,&j / arb.u.
0.03,-66.48
0.08,-66.48
0.13,-66.49
0.18,-66.48
0.23,-66.47
0.28,-66.5
0.33,-66.47
0.38,-66.5
0.43,-66.48
0.48,-66.46
0.53,-66.42
0.58,-65.77
0.63,-63.5
0.68,-59.61
0.73,-54.49
0.78,-48.36
0.83,-42.01
0.88,-35.07
0.93,-27.26
0.98,-18.47
1.03,-8.43
1.08,2.44
1.13,13.83
1.18,24.71
1.23,34.24
1.28,42.14
1.33,48.47
1.38,53.45
1.43,56.98
1.48,59.24
1.53,60.12
1.58,59.95
1.63,58.39
1.68,55.46
1.73,51.25
1.78,45.75
1.83,38.82
1.88,30.46
1.93,20.77
1.98,10.16
2.03,-0.42
2.08,-10.36
2.13,-19.27
2.18,-27.02
2.23,-33.7
2.28,-39.39
2.33,-44.01
2.38,-46.5
2.43,-46.98
2.48,-46.72
2.53,-46.06
2.58,-45.29
2.63,-44.69
2.68,-43.93
2.73,-42.51
2.78,-40.17
2.83,-37.03
2.88,-33.04
2.93,-28.35
2.98,-22.89
3.03,-16.76
3.08,-9.86
3.13,-2.5
3.18,5.32
3.23,12.98
3.28,20.33
3.33,26.82
3.38,32.37
3.43,36.86
3.48,40.25
3.53,42.56
3.58,43.84
3.63,44.15
3.68,43.57
3.73,41.85
3.78,39.12
3.83,35.3
3.88,30.53
3.93,24.79
3.98,18.26
4.03,11.03
4.08,3.77
4.13,-3.4
4.18,-10.01
4.23,-16.13
4.28,-21.51
4.33,-26.13
4.38,-29.91
4.43,-33.07
4.48,-35.38
4.53,-36.98
4.58,-37.66
4.63,-37.77
4.68,-36.96
4.73,-35.38
4.78,-33.02
4.83,-30.02
4.88,-26.24
4.93,-21.98
4.98,-16.96
5.03,-11.54
5.08,-5.51
5.13,0.79
5.18,7.15
5.23,13.31
5.28,19.17
5.33,24.22
5.38,28.56
5.43,31.96
5.48,34.52
5.53,36.15
5.58,36.91
5.63,36.82
5.68,35.85
5.73,33.88
5.78,31.1
5.83,27.32
5.88,22.9
5.93,17.74
5.98,12.09
6.03,6.16
6.08,0.31
6.13,-5.44
6.18,-10.74
6.23,-15.55
6.28,-19.83
6.33,-23.5
6.38,-26.37
6.43,-28.71
6.48,-30.42
6.53,-31.43
6.58,-31.75
6.63,-31.64
6.68,-30.61
6.73,-29.02
6.78,-26.75
6.83,-24.1
6.88,-20.73
6.93,-16.97
6.98,-12.63
7.03,-7.98
7.08,-3.03
7.13,2.06
7.18,7.15
7.23,12.01
7.28,16.51
7.33,20.44
7.38,23.77
7.43,26.34
7.48,28.25
7.53,29.26
7.58,29.71
7.63,29.38
7.68,28.24
7.73,26.29
7.78,23.75
7.83,20.44
7.88,16.68
7.93,12.39
7.98,7.78
8.03,3.11
8.08,-1.44
8.13,-5.97
8.18,-10.04
8.23,-13.84
8.28,-17.11
8.33,-19.99
8.38,-22.2
8.43,-24
8.48,-25.11
8.53,-25.85
8.58,-25.97
8.63,-25.74
8.68,-24.7
8.73,-23.3
8.78,-21.33
8.83,-19.04
8.88,-16.15
8.93,-13.04
8.98,-9.51
9.03,-5.85
9.08,-1.82
9.13,2.06
9.18,5.96
9.23,9.61
9.28,13.02
9.33,15.89
9.38,18.49
9.43,20.3
9.48,21.71
9.53,22.35
9.58,22.57
9.63,22.19
9.68,21.18
9.73,19.41
9.78,17.36
9.83,14.59
9.88,11.66
9.93,8.27
9.98,4.89
10.03,1.29
10.08,-2.16
10.13,-5.57
10.18,-8.65
10.23,-11.52
10.28,-13.93
10.33,-16.16
10.38,-17.85
10.43,-19.27
10.48,-20.04
10.53,-20.56
10.58,-20.54
10.63,-20.31
10.68,-19.35
10.73,-18.2
10.78,-16.52
10.83,-14.65
10.88,-12.39
10.93,-10.01
10.98,-7.3
11.03,-4.51
11.08,-1.43
11.13,1.38
11.18,4.19
11.23,6.79
11.28,9.27
11.33,11.3
11.38,13.12
11.43,14.45
11.48,15.44
11.53,15.85
11.58,16.02
11.63,15.59
11.68,14.8
11.73,13.42
11.78,11.84
11.83,9.85
11.88,7.7
11.93,5.23
11.98,2.83
12.03,0.23
12.08,-2.25
12.13,-4.78
12.18,-6.92
12.23,-9.11
12.28,-10.83
12.33,-12.41
12.38,-13.61
12.43,-14.55
12.48,-15.13
12.53,-15.47
12.58,-15.38
12.63,-15.21
12.68,-14.44
12.73,-13.57
12.78,-12.34
12.83,-10.95
12.88,-9.36
12.93,-7.66
12.98,-5.63
13.03,-3.69
13.08,-1.51
13.13,0.35
13.18,2.39
13.23,4.01
13.28,5.78
13.33,7.12
13.38,8.39
13.43,9.18
13.48,9.85
13.53,10.02
13.58,10.22
13.63,9.85
13.68,9.3
13.73,8.35
13.78,7.29
13.83,5.97
13.88,4.54
13.93,2.88
13.98,1.3
14.03,-0.47
14.08,-2.06
14.13,-3.81
14.18,-5.19
14.23,-6.68
14.28,-7.8
14.33,-8.92
14.38,-9.63
14.43,-10.35
14.48,-10.66
14.53,-10.85
14.58,-10.8
14.63,-10.68
14.68,-10.14
14.73,-9.61
14.78,-8.66
14.83,-7.81
14.88,-6.59
14.93,-5.57
14.98,-4.14
15.03,-2.99
15.08,-1.59
15.13,-0.4
15.18,0.91
15.23,1.93
15.28,3.01
15.33,3.76
15.38,4.52
15.43,4.9
15.48,5.37
15.53,5.33
15.58,5.43
15.63,5.19
15.68,4.84
15.73,4.25
15.78,3.66
15.83,2.75
15.88,1.98
15.93,0.94
15.98,-0.02
16.03,-1.06
16.08,-1.98
16.13,-3.04
16.18,-3.81
16.23,-4.68
16.28,-5.27
16.33,-6.02
16.38,-6.35
16.43,-6.72
16.48,-6.83
16.53,-7
16.58,-6.9
16.63,-6.88
16.68,-6.46
16.73,-6.21
16.78,-5.65
16.83,-5.15
16.88,-4.48
16.93,-3.93
16.98,-3.19
17.03,-2.58
17.08,-1.82
17.13,-1.25
17.18,-0.62
17.23,-0.13
17.28,0.42
17.33,0.74
17.38,1.13
17.43,1.29
17.48,1.46
17.53,1.42
17.58,1.49
17.63,1.4
17.68,1.24
17.73,0.94
17.78,0.69
17.83,0.27
17.88,-0.05
17.93,-0.48
17.98,-0.88
18.03,-1.31
18.08,-1.62
18.13,-2.06
18.18,-2.34
18.23,-2.7
18.28,-2.9
18.33,-3.13
18.38,-3.21
18.43,-3.36
18.48,-3.34
18.53,-3.4
18.58,-3.37
18.63,-3.42
18.68,-3.31
18.73,-3.27
18.78,-3.11
18.83,-3.04
18.88,-2.82
18.93,-2.76
18.98,-2.57
19.03,-2.55
19.08,-2.32
19.13,-2.26
19.18,-2.18
19.23,-2.21
19.28,-2.08
19.33,-2.05
19.38,-2.02
19.43,-2.09
19.48,-2
19.53,-2.06
19.58,-1.99
19.63,-2.04
19.68,-2.01
19.73,-2.06
19.78,-2.02
19.83,-2.08
19.88,-2.04
19.93,-2.06
19.98,-2.03
20.03,-2.05
20.08,-2.05
20.13,-2.04
20.18,-2.02
20.23,-2.05
20.28,-2.02
20.33,-2.01
20.38,-2.06
20.43,-2.05
20.48,-2.06
20.53,-2.07
20.58,-2
20.63,-2.06
20.68,-2.04
20.73,-2.04
20.78,-2.07
20.83,-2.04
20.88,-2.05
20.93,-2
20.98,-2.07
21.03,-2.05
21.08,-2.06
21.13,-2.07
21.18,-2.07
21.23,-2.04
21.28,-2
21.33,-2.04
21.38,-2.03
21.43,-2.05
21.48,-2.05
21.53,-2.04
21.58,-2.04
21.63,-2.05
21.68,-2.02
21.73,-2.08
21.78,-2.04
21.83,-2.03
21.88,-2.02
21.93,-2.05
21.98,-2.05
22.03,-2.03
22.08,-2.02
22.13,-2.01
22.18,-2.07
22.23,-2
22.28,-2.05
22.33,-2.02
22.38,-2.07
22.43,-1.99
22.48,-2.05
22.53,-2.05
22.58,-2.03
22.63,-2.02
22.68,-2.05
22.73,-2.03
22.78,-2.03
22.83,-2.06
22.88,-2.06
22.93,-2.04
22.98,-2.03
23.03,-2.02
23.08,-2.11
23.13,-2.01
23.18,-1.98
23.23,-2.03
23.28,-2.04
23.33,-2.05
23.38,-2.05
23.43,-2.03
23.48,-2.06
23.53,-2.03
23.58,-2.01
23.63,-2.06
23.68,-2.02
23.73,-2.07
23.78,-2.05
23.83,-2.05
23.88,-2.02
23.93,-2.04
23.98,-2.03
24.03,-2
24.08,-2.07
24.13,-2.04
24.18,-2.06
24.23,-2.03
24.28,-2.04
24.33,-2.01
24.38,-2.07
24.43,-2.04
24.48,-2.05
24.53,-1.98
24.58,-2.09
24.63,-2
24.68,-2.09
24.73,-1.98
24.78,-2.03
24.83,-2.05
24.88,-2.06
24.93,-2.01
24.98,-2.06
25.03,-2.03
25.08,-2.02
25.13,-2.01
25.18,-2.05
25.23,-2.03
25.28,-2.07
25.33,-2.02
25.38,-2.11
25.43,-2
25.48,-2.04
25.53,-1.99
25.58,-2.09
25.63,-2.02
25.68,-2.07
25.73,-2.02
25.78,-2.05
25.83,-2.02
25.88,-2.07
25.93,-2.03
25.98,-2.06
26.03,-2.03
26.08,-2.1
26.13,-2.03
26.18,-2.08
26.23,-2.04
26.28,-2.09
26.33,-2.01
26.38,-2.06
26.43,-1.99
26.48,-2.03
26.53,-2.02
26.58,-2.07
26.63,-2.04
26.68,-2.06
26.73,-1.99
26.78,-2.07
26.83,-2.01
26.88,-2.07
26.93,-1.98
26.98,-2.11
27.03,-2.03
27.08,-2.08
27.13,-1.98
27.18,-2.08
27.23,-2.02
27.28,-2.08
27.33,-2.03
27.38,-2.04
27.43,-2.01
27.48,-2.05
27.53,-2.01
27.58,-2.08
27.63,-2.04
27.68,-2.03
27.73,-1.99
27.78,-2.04
27.83,-2
27.88,-2.08
27.93,-1.99
27.98,-2.05
28.03,-2.02
28.08,-2.1
28.13,-2
28.18,-2.05
28.23,-2.01
28.28,-2.07
28.33,-2.02
28.38,-2.08
28.43,-2.01
28.48,-2.07
28.53,-1.98
28.58,-2.03
28.63,-1.98
28.68,-2.07
28.73,-1.98
28.78,-2.05
28.83,-2.03
28.88,-2.09
28.93,-1.99
28.98,-2.07
29.03,-1.99
29.08,-2.08
29.13,-1.99
29.18,-2.05
29.23,-1.99
29.28,-2.09
29.33,-2.01
29.38,-2.1
29.43,-1.99
29.48,-2.07
29.53,-2.03
29.58,-2.11
29.63,-2
29.68,-2.08
29.73,-2.02
29.78,-2.11
29.83,-1.97
29.88,-2.09
29.93,-2.01
29.98,-2.09
30.03,-2
30.08,-2.06
30.13,-2.01
